 ELASTIC RESPONSE SPECTRUM CALCULATION


 NUMBER OF DAMPING VALUES      <10    =    1
 NUMBER OF OUTPUT PERIOD CARDS        =    1
 NUMBER OF ACCELERATION VALUES <35000 =15000
 INTERVAL OF DIGITIZATION             =     .0050
 ACCELERATION SCALE FACTOR            =    1.00000


 DAMPING VALUES (FRACTION OF CRITICAL)

           .050
 
 
 DAMPING RATIO =  .050
                                                         PSEUDO       PSEUDO
  PERIOD     DISPLACEMENT    VELOCITY   ACCELERATION    VELOCITY   ACCELERATION
                SD(cm)      SV(cm/sec)       SA(g)    SD*W(cm/sec)   SD*W**2(g)

    .010         .0012         .1913         .4979         .7765         .4973
    .020         .0055         .5418         .5492        1.7132         .5486
    .030         .0142        1.8330         .6359        2.9689         .6338
    .040         .0318        2.3414         .8013        4.9940         .7996
    .050         .0441        3.6841         .7073        5.5361         .7091
    .060         .0680        4.2537         .7601        7.1216         .7602
    .070         .0990        5.3330         .8179        8.8874         .8132
    .080         .1382        6.6067         .8730       10.8530         .8689
    .090         .1728        8.2304         .8617       12.0618         .8584
    .100         .2379       12.8229         .9535       14.9504         .9575
    .110         .3042       12.8465        1.0099       17.3729        1.0115
    .120         .3729       15.5931        1.0489       19.5241        1.0420
    .130         .4542       16.2472        1.0866       21.9528        1.0815
    .140         .5607       21.3409        1.1570       25.1625        1.1511
    .150         .6112       22.6881        1.0999       25.6009        1.0931
    .160         .7227       25.3685        1.1414       28.3789        1.1360
    .170         .8189       28.8408        1.1435       30.2669        1.1403
    .180         .9228       32.0973        1.1498       32.2108        1.1461
    .190         .9944       31.3021        1.1098       32.8824        1.1084
    .200        1.1322       28.8871        1.1450       35.5691        1.1390
    .210        1.2461       31.1029        1.1401       37.2813        1.1370
    .220        1.3602       32.9957        1.1353       38.8452        1.1309
    .230        1.4931       34.3225        1.1429       40.7884        1.1358
    .240        1.6252       36.1891        1.1407       42.5466        1.1354
    .250        1.7265       38.6899        1.1170       43.3897        1.1116
    .260        1.9610       33.4748        1.1707       47.3874        1.1673
    .270        2.0295       35.0842        1.1236       47.2270        1.1203
    .280        2.2182       38.0917        1.1424       49.7755        1.1386
    .290        2.3964       39.9867        1.1503       51.9201        1.1467
    .300        2.5123       39.8259        1.1266       52.6155        1.1233
    .310        2.7332       41.2150        1.1481       55.3958        1.1445
    .320        2.9019       40.5972        1.1442       56.9771        1.1404
    .330        3.0364       40.2307        1.1261       57.8108        1.1220
    .340        3.2977       42.3132        1.1527       60.9395        1.1479
    .350        3.5261       46.9814        1.1642       63.2994        1.1583
    .360        3.5137       55.4381        1.0954       61.3242        1.0910
    .370        3.8702       62.0374        1.1418       65.7210        1.1376
    .380        4.0831       64.4239        1.1427       67.5102        1.1378
    .390        4.3148       66.4202        1.1463       69.5120        1.1415
    .400        4.5949       68.6564        1.1612       72.1751        1.1556
    .410        4.6639       66.3105        1.1218       71.4720        1.1165
    .420        4.8921       63.5705        1.1211       73.1838        1.1160
    .430        5.2919       70.8788        1.1566       77.3231        1.1517
    .440        5.4822       75.7851        1.1444       78.2838        1.1395
    .450        5.8261       78.5428        1.1625       81.3458        1.1578
    .460        6.0919       81.6814        1.1640       83.2071        1.1585
    .470        6.1679       81.6365        1.1287       82.4524        1.1236
    .480        6.2992       80.8926        1.1054       82.4535        1.1002
    .490        6.7815       79.7083        1.1424       86.9558        1.1366
    .500        6.8079       79.2678        1.1019       85.5480        1.0958
    .510        7.2462       89.6026        1.1258       89.2701        1.1211
    .520        7.8504       95.4851        1.1726       94.8540        1.1683
    .530        8.0415       95.0896        1.1563       95.3296        1.1520
    .540        8.1839       93.9349        1.1338       95.2211        1.1294
    .550        8.4724       94.6264        1.1320       96.7854        1.1271
    .560        8.8427       96.1044        1.1400       99.2115        1.1347
    .570        9.1994       97.3432        1.1448      101.4032        1.1394
    .580        9.5112       98.0465        1.1439      103.0329        1.1377
    .590        9.8278       98.8742        1.1423      104.6573        1.1361
    .600       10.1931      100.3060        1.1456      106.7387        1.1394
    .610       10.5455      101.5819        1.1469      108.6189        1.1404
    .620       10.8146      101.9953        1.1385      109.5939        1.1321
    .630       11.0507      102.3473        1.1267      110.2091        1.1204
    .640       11.4363      104.4919        1.1298      112.2725        1.1235
    .650       12.0537      109.2509        1.1541      116.5132        1.1480
    .660       12.6814      114.5841        1.1775      120.7229        1.1715
    .670       12.9394      117.2138        1.1654      121.3407        1.1599
    .680       12.5740      115.3049        1.0990      116.1798        1.0943
    .690       12.2210      116.4833        1.0389      111.2823        1.0329
    .700       12.9890      121.1070        1.0725      116.5860        1.0667
    .710       13.4051      124.4358        1.0759      118.6257        1.0701
    .720       13.3104      126.3355        1.0387      116.1514        1.0332
    .730       13.6437      126.8434        1.0357      117.4295        1.0303
    .740       13.9558      126.3233        1.0311      118.4922        1.0255
    .750       14.2163      125.1268        1.0227      119.0948        1.0170
    .760       14.4349      123.3733        1.0114      119.3345        1.0057
    .770       14.6026      123.5763         .9968      119.1532         .9911
    .780       14.7159      124.7131         .9785      118.5388         .9733
    .790       14.9528      125.3559         .9689      118.9223         .9641
    .800       15.2296      125.5542         .9628      119.6098         .9576
    .810       15.4015      125.3809         .9499      119.4659         .9446
    .820       15.4601      124.8879         .9301      118.4582         .9252
    .830       15.5703      123.9743         .9144      117.8653         .9095
    .840       15.6258      122.5381         .8960      116.8772         .8911
    .850       15.9301      122.6357         .8914      117.7515         .8872
    .860       16.3593      127.0769         .8941      119.5184         .8901
    .870       16.5091      128.4029         .8814      119.2261         .8777
    .880       16.8946      126.4491         .8819      120.6237         .8779
    .890       16.9568      121.2568         .8654      119.7075         .8614
    .900       16.7203      113.4734         .8343      116.7261         .8307
    .910       16.2080      107.1847         .7911      111.9068         .7876
    .920       16.7903      110.4016         .8023      114.6672         .7983
    .930       17.0456      118.9069         .7976      115.1588         .7931
    .940       17.9164      123.6996         .8205      119.7538         .8159
    .950       18.3722      124.9661         .8235      121.5082         .8192
    .960       18.5269      123.7065         .8130      121.2547         .8090
    .970       18.5326      121.2739         .7963      120.0414         .7926
    .980       18.5306      118.8517         .7801      118.8037         .7764
    .990       18.6114      117.8637         .7677      118.1166         .7641
   1.000       18.7929      117.9380         .7598      118.0761         .7562
   1.010       19.0330      119.9372         .7543      118.4001         .7508
   1.020       19.2665      121.8807         .7487      118.6780         .7452
   1.030       19.4444      123.3804         .7412      118.6108         .7375
   1.040       19.6066      124.3041         .7332      118.4505         .7295
   1.050       19.7774      124.8764         .7257      118.3442         .7219
   1.060       19.9441      125.1835         .7180      118.2161         .7143
   1.070       20.1509      127.4170         .7121      118.3257         .7083
   1.080       20.4254      130.0914         .7087      118.8265         .7047
   1.090       20.7639      133.2846         .7073      119.6878         .7033
   1.100       21.1056      136.8617         .7061      120.5512         .7019
   1.110       21.3678      140.4290         .7022      120.9498         .6979
   1.120       21.4510      143.1563         .6927      120.3363         .6881
   1.130       21.2652      144.5467         .6748      118.2385         .6702
   1.140       20.8113      143.8296         .6475      114.6996         .6444
   1.150       21.1796      140.8350         .6475      115.7143         .6444
   1.160       21.1868      135.5055         .6367      114.7557         .6336
   1.170       21.7026      128.1437         .6404      116.5452         .6380
   1.180       22.2284      119.3238         .6449      118.3571         .6424
   1.190       22.6131      109.9119         .6451      119.3935         .6426
   1.200       22.8780      111.9215         .6419      119.7855         .6393
   1.210       23.0568      113.1287         .6362      119.7238         .6337
   1.220       23.1894      113.8921         .6294      119.4253         .6270
   1.230       23.3006      114.4135         .6222      119.0225         .6198
   1.240       23.4038      114.8944         .6151      118.5857         .6125
   1.250       23.4899      115.4871         .6079      118.0698         .6050
   1.260       23.5464      116.0820         .5999      117.4144         .5968
   1.270       23.5474      116.5803         .5907      116.4948         .5875
   1.280       23.9374      116.8939         .5909      117.4991         .5879
   1.290       24.2839      116.8183         .5902      118.2757         .5872
   1.300       24.5694      116.3851         .5880      118.7458         .5850
   1.310       24.7912      115.6058         .5843      118.9033         .5813
   1.320       24.9626      114.5861         .5795      118.8181         .5765
   1.330       25.1122      113.4963         .5742      118.6316         .5713
   1.340       25.2666      112.5121         .5691      118.4703         .5662
   1.350       25.4539      111.7702         .5649      118.4646         .5620
   1.360       25.6881      111.3399         .5616      118.6754         .5589
   1.370       25.9640      111.1282         .5594      119.0743         .5567
   1.380       26.2623      110.9584         .5576      119.5697         .5549
   1.390       26.5467      113.9928         .5554      119.9952         .5529
   1.400       26.7787      116.9737         .5522      120.1792         .5498
   1.410       26.9148      118.8493         .5471      119.9334         .5448
   1.420       26.9258      123.3186         .5397      119.1371         .5373
   1.430       27.3110      129.6905         .5412      119.9967         .5374
   1.440       27.8230      135.0597         .5439      121.3973         .5399
   1.450       28.1197      139.2884         .5423      121.8457         .5382
   1.460       28.2395      142.3777         .5373      121.5265         .5331
   1.470       28.2485      144.5437         .5302      120.7386         .5261
   1.480       28.2042      146.1454         .5222      119.7346         .5182
   1.490       28.1750      147.4108         .5146      118.8078         .5107
   1.500       28.1994      148.6310         .5081      118.1179         .5043
   1.510       28.3025      149.9997         .5028      117.7648         .4995
   1.520       28.4843      151.6030         .4989      117.7416         .4961
   1.530       28.7273      153.4677         .4960      117.9698         .4938
   1.540       29.0022      155.3985         .4940      118.3253         .4921
   1.550       29.2650      157.1987         .4922      118.6273         .4902
   1.560       29.4735      158.6645         .4896      118.7066         .4874
   1.570       29.5887      159.6319         .4856      118.4114         .4831
   1.580       29.5828      160.0326         .4796      117.6387         .4769
   1.590       29.4421      159.7074         .4716      116.3429         .4686
   1.600       29.4009      158.6382         .4647      115.4539         .4622
   1.610       29.8392      156.9135         .4658      116.4471         .4632
   1.620       30.2755      154.6034         .4660      117.4205         .4642
   1.630       30.6631      151.7516         .4662      118.1943         .4644
   1.640       31.0123      148.4602         .4657      118.8112         .4640
   1.650       31.3308      144.8678         .4648      119.3041         .4631
   1.660       31.6291      141.0729         .4635      119.7143         .4619
   1.670       31.9143      137.1233         .4621      120.0704         .4605
   1.680       32.1935      133.0911         .4607      120.3999         .4590
   1.690       32.4737      129.0360         .4592      120.7294         .4575
   1.700       32.7599      125.0050         .4579      121.0769         .4562
   1.710       33.0579      121.0307         .4567      121.4637         .4549
   1.720       33.3724      117.8401         .4557      121.9064         .4539
   1.730       33.7074      118.0997         .4550      122.4185         .4532
   1.740       34.0646      118.4039         .4546      123.0046         .4528
   1.750       34.4450      118.7488         .4545      123.6676         .4526
   1.760       34.8494      119.1415         .4547      124.4085         .4527
   1.770       35.2725      119.5642         .4551      125.2075         .4531
   1.780       35.7084      119.9852         .4557      126.0427         .4535
   1.790       36.1513      120.3960         .4563      126.8931         .4540
   1.800       36.5942      120.7539         .4568      127.7341         .4545
   1.810       37.0287      121.0221         .4571      128.5366         .4548
   1.820       37.4478      121.1547         .4571      129.2772         .4549
   1.830       37.8435      121.1072         .4568      129.9294         .4547
   1.840       38.2165      120.8354         .4561      130.4968         .4542
   1.850       38.5724      120.3430         .4551      131.0005         .4535
   1.860       38.9351      119.7246         .4540      131.5212         .4529
   1.870       39.3639      118.8945         .4536      132.2586         .4530
   1.880       39.8780      117.7749         .4548      133.2731         .4540
   1.890       40.4243      118.6149         .4564      134.3841         .4554
   1.900       40.9673      120.5436         .4579      135.4726         .4567
   1.910       41.4933      122.2560         .4591      136.4934         .4577
   1.920       41.9902      123.7174         .4598      137.4085         .4584
   1.930       42.4494      124.9310         .4602      138.1917         .4586
   1.940       42.8671      125.9057         .4601      138.8321         .4583
   1.950       43.2399      126.6483         .4594      139.3213         .4576
   1.960       43.5695      128.2863         .4582      139.6670         .4564
   1.970       43.8583      132.6729         .4566      139.8792         .4548
   1.980       44.9647      136.3351         .4635      142.6835         .4615
   1.990       46.2282      139.1768         .4718      145.9557         .4697
   2.000       47.2698      141.1598         .4777      148.4982         .4755
   2.010       48.0764      144.0232         .4811      150.2806         .4789
   2.020       48.6329      149.7615         .4819      151.2676         .4796
   2.030       48.9383      155.3517         .4802      151.4677         .4779
   2.040       49.0042      160.7337         .4761      150.9283         .4738
   2.050       48.8431      165.8364         .4700      149.6982         .4677
   2.060       48.4865      170.6331         .4621      147.8839         .4598
   2.070       47.9762      175.0584         .4528      145.6205         .4506
   2.080       47.3565      179.0047         .4427      143.0488         .4405
   2.090       46.6853      182.4258         .4323      140.3464         .4301
   2.100       46.9356      185.2756         .4299      140.4268         .4283
   2.110       47.8170      187.5649         .4336      142.3860         .4322
   2.120       48.6822      189.2659         .4366      144.2784         .4359
   2.130       49.5861      190.3274         .4407      146.2674         .4398
   2.140       50.4437      190.7841         .4442      148.1018         .4432
   2.150       51.4798      190.6931         .4490      150.4408         .4482
   2.160       52.4878      190.1279         .4539      152.6764         .4527
   2.170       53.3882      189.0989         .4576      154.5797         .4562
   2.180       54.1735      187.6900         .4604      156.1340         .4587
   2.190       54.8554      186.0119         .4620      157.3774         .4603
   2.200       55.4452      184.1585         .4628      158.3465         .4610
   2.210       55.9518      182.1841         .4628      159.0704         .4610
   2.220       56.3859      180.1574         .4624      159.5824         .4604
   2.230       56.7687      178.1618         .4616      159.9454         .4594
   2.240       57.1186      176.2593         .4605      160.2126         .4581
   2.250       57.4528      174.4985         .4593      160.4338         .4567
   2.260       57.7910      172.8839         .4580      160.6641         .4553
   2.270       58.1466      171.4254         .4569      160.9406         .4541
   2.280       58.5285      170.1245         .4560      161.2871         .4531
   2.290       58.9498      168.9673         .4553      161.7388         .4524
   2.300       59.4065      167.9297         .4550      162.2833         .4519
   2.310       59.9018      166.9890         .4548      162.9279         .4517
   2.320       60.4350      166.1316         .4550      163.6697         .4518
   2.330       60.9938      165.4873         .4554      164.4738         .4521
   2.340       61.5781      165.3903         .4558      165.3398         .4525
   2.350       62.1769      165.3028         .4564      166.2374         .4531
   2.360       62.7803      165.1932         .4571      167.1394         .4536
   2.370       63.3881      165.0389         .4577      168.0455         .4541
   2.380       63.9875      164.8224         .4582      168.9218         .4546
   2.390       64.5756      164.5627         .4586      169.7611         .4549
   2.400       65.1555      164.2574         .4590      170.5717         .4552
   2.410       65.7184      163.8943         .4592      171.3315         .4553
   2.420       66.2701      163.4983         .4594      172.0561         .4554
   2.430       66.8118      163.0776         .4594      172.7484         .4553
   2.440       67.3430      162.6303         .4594      173.4085         .4552
   2.450       67.8725      162.1902         .4593      174.0585         .4550
